[EPR]
N1: DMPO_OOH_OH spectrum S/N=5 with J.Bolton parameters         
N2: DMPO_OH:  aN= 15.3, aH= 15.3, 0.61, 0.25                    
N3: DMPO_OOH: aN= 14.9, aH= 14.9                                

[DATA]
3295.10	-0.283
3295.16	1.523
3295.22	-0.964
3295.27	0.659
3295.33	-0.068
3295.39	-1.717
3295.45	-0.946
3295.51	-0.403
3295.57	0.101
3295.63	-0.218
3295.68	-0.177
3295.74	0.378
3295.80	-0.376
3295.86	-0.857
3295.92	-2.134
3295.98	-0.990
3296.04	1.071
3296.09	1.301
3296.15	1.521
3296.21	0.999
3296.27	0.029
3296.33	0.700
3296.39	-0.627
3296.45	-2.619
3296.51	-0.769
3296.56	-0.452
3296.62	-0.395
3296.68	-1.052
3296.74	-0.777
3296.80	1.333
3296.86	2.230
3296.92	0.979
3296.97	1.630
3297.03	-0.100
3297.09	1.112
3297.15	-0.460
3297.21	-0.111
3297.27	-1.052
3297.33	0.485
3297.39	-1.344
3297.44	-1.118
3297.50	0.882
3297.56	-0.690
3297.62	-0.735
3297.68	0.260
3297.74	0.135
3297.80	-0.581
3297.85	-0.504
3297.91	1.054
3297.97	-1.539
3298.03	0.123
3298.09	0.674
3298.15	-0.591
3298.21	-0.455
3298.26	-0.679
3298.32	1.272
3298.38	0.121
3298.44	0.069
3298.50	-0.203
3298.56	2.015
3298.62	1.187
3298.68	-1.646
3298.73	0.601
3298.79	0.769
3298.85	-0.516
3298.91	0.504
3298.97	0.685
3299.03	-1.688
3299.09	-0.163
3299.14	-1.371
3299.20	-0.225
3299.26	0.022
3299.32	-0.943
3299.38	0.295
3299.44	0.477
3299.50	0.023
3299.56	-0.175
3299.61	0.788
3299.67	-1.389
3299.73	-1.185
3299.79	0.491
3299.85	0.861
3299.91	0.372
3299.97	0.481
3300.02	-2.036
3300.08	-0.835
3300.14	-0.918
3300.20	2.210
3300.26	-0.087
3300.32	1.821
3300.38	1.271
3300.44	2.763
3300.49	-0.369
3300.55	1.315
3300.61	-0.342
3300.67	0.008
3300.73	-0.196
3300.79	0.409
3300.85	2.026
3300.90	-0.309
3300.96	-0.061
3301.02	-0.338
3301.08	1.474
3301.14	1.944
3301.20	0.182
3301.26	2.474
3301.31	1.666
3301.37	4.001
3301.43	3.818
3301.49	3.443
3301.55	4.023
3301.61	3.607
3301.67	2.066
3301.73	1.987
3301.78	3.388
3301.84	1.708
3301.90	1.358
3301.96	0.872
3302.02	2.128
3302.08	0.564
3302.14	2.581
3302.19	0.962
3302.25	-0.548
3302.31	-1.043
3302.37	-0.992
3302.43	0.088
3302.49	-0.390
3302.55	-1.933
3302.60	-1.427
3302.66	-1.365
3302.72	-1.997
3302.78	-1.520
3302.84	-0.104
3302.90	-2.392
3302.96	-0.917
3303.02	0.668
3303.07	2.445
3303.13	2.112
3303.19	3.220
3303.25	3.674
3303.31	4.947
3303.37	6.940
3303.43	7.049
3303.48	7.905
3303.54	8.481
3303.60	7.895
3303.66	9.445
3303.72	9.138
3303.78	10.728
3303.84	9.707
3303.90	7.174
3303.95	7.314
3304.01	8.658
3304.07	6.974
3304.13	6.339
3304.19	4.339
3304.25	5.385
3304.31	2.769
3304.36	3.312
3304.42	1.575
3304.48	0.738
3304.54	0.046
3304.60	-2.820
3304.66	-1.281
3304.72	-1.561
3304.78	-0.228
3304.83	0.015
3304.89	0.425
3304.95	-2.000
3305.01	3.254
3305.07	-1.781
3305.13	1.043
3305.19	0.476
3305.24	-0.517
3305.30	2.168
3305.36	0.566
3305.42	-0.985
3305.48	-3.397
3305.54	-3.930
3305.60	-4.402
3305.65	-7.465
3305.71	-6.173
3305.77	-8.165
3305.83	-8.861
3305.89	-9.877
3305.95	-7.890
3306.01	-10.556
3306.07	-8.241
3306.12	-9.897
3306.18	-8.075
3306.24	-8.509
3306.30	-9.126
3306.36	-6.515
3306.42	-7.562
3306.48	-8.998
3306.53	-5.057
3306.59	-3.467
3306.65	-4.431
3306.71	-4.936
3306.77	-2.463
3306.83	-3.686
3306.89	-2.625
3306.95	0.032
3307.00	-2.455
3307.06	-1.686
3307.12	-2.270
3307.18	-2.157
3307.24	-2.583
3307.30	-2.567
3307.36	-1.565
3307.41	-3.386
3307.47	-1.075
3307.53	0.243
3307.59	-1.353
3307.65	-0.980
3307.71	-0.691
3307.77	-0.687
3307.82	2.164
3307.88	0.190
3307.94	1.171
3308.00	-0.029
3308.06	-0.733
3308.12	-0.834
3308.18	0.049
3308.24	1.305
3308.29	1.648
3308.35	1.335
3308.41	-0.036
3308.47	0.095
3308.53	-1.217
3308.59	-1.791
3308.65	-0.365
3308.70	-0.839
3308.76	-0.013
3308.82	0.033
3308.88	0.242
3308.94	-1.468
3309.00	1.186
3309.06	-0.808
3309.12	1.845
3309.17	1.312
3309.23	-0.500
3309.29	1.195
3309.35	1.164
3309.41	-0.023
3309.47	0.169
3309.53	-0.992
3309.58	0.973
3309.64	1.579
3309.70	-1.232
3309.76	0.037
3309.82	-0.649
3309.88	0.847
3309.94	-2.106
3310.00	0.683
3310.05	-0.111
3310.11	0.213
3310.17	0.295
3310.23	0.861
3310.29	0.188
3310.35	-1.303
3310.41	-0.780
3310.46	1.812
3310.52	1.798
3310.58	0.347
3310.64	1.046
3310.70	0.743
3310.76	0.646
3310.82	-0.570
3310.87	0.017
3310.93	-1.264
3310.99	0.359
3311.05	0.811
3311.11	0.955
3311.17	-0.309
3311.23	0.165
3311.29	0.510
3311.34	-0.337
3311.40	-0.326
3311.46	0.180
3311.52	-0.675
3311.58	0.059
3311.64	-0.702
3311.70	1.702
3311.75	-0.823
3311.81	0.748
3311.87	0.164
3311.93	0.697
3311.99	-0.451
3312.05	0.813
3312.11	0.932
3312.17	1.258
3312.22	0.689
3312.28	-0.265
3312.34	-1.861
3312.40	1.402
3312.46	-0.567
3312.52	0.152
3312.58	0.656
3312.63	0.970
3312.69	1.090
3312.75	0.468
3312.81	-0.248
3312.87	0.442
3312.93	-0.359
3312.99	0.261
3313.04	-0.614
3313.10	-0.219
3313.16	1.119
3313.22	0.510
3313.28	1.063
3313.34	0.513
3313.40	-0.453
3313.46	-0.144
3313.51	0.026
3313.57	0.585
3313.63	0.809
3313.69	-0.389
3313.75	0.646
3313.81	0.864
3313.87	-0.334
3313.92	-0.659
3313.98	2.079
3314.04	2.460
3314.10	2.963
3314.16	2.619
3314.22	0.731
3314.28	-0.178
3314.34	2.278
3314.39	2.130
3314.45	0.273
3314.51	0.898
3314.57	3.498
3314.63	5.782
3314.69	1.774
3314.75	2.594
3314.80	2.865
3314.86	4.592
3314.92	5.964
3314.98	6.910
3315.04	7.469
3315.10	7.162
3315.16	8.605
3315.22	7.366
3315.27	8.261
3315.33	9.324
3315.39	8.913
3315.45	8.657
3315.51	9.477
3315.57	11.297
3315.63	9.838
3315.68	7.511
3315.74	7.143
3315.80	6.548
3315.86	7.657
3315.92	5.425
3315.98	3.234
3316.04	2.530
3316.09	1.314
3316.15	-1.561
3316.21	0.485
3316.27	0.648
3316.33	-0.587
3316.39	0.385
3316.45	1.198
3316.51	2.996
3316.56	4.518
3316.62	5.091
3316.68	7.510
3316.74	8.493
3316.80	10.348
3316.86	10.345
3316.92	9.697
3316.97	9.266
3317.03	6.987
3317.09	6.301
3317.15	2.217
3317.21	4.116
3317.27	-1.484
3317.33	-2.257
3317.39	-3.364
3317.44	-3.351
3317.50	-4.044
3317.56	-3.887
3317.62	-4.276
3317.68	-3.376
3317.74	-4.124
3317.80	-5.772
3317.85	-6.073
3317.91	-5.171
3317.97	-6.351
3318.03	-6.078
3318.09	-3.583
3318.15	-4.665
3318.21	-2.466
3318.26	-2.045
3318.32	-1.986
3318.38	-0.056
3318.44	1.719
3318.50	-1.195
3318.56	-1.309
3318.62	-2.918
3318.68	-2.646
3318.73	-4.072
3318.79	-2.408
3318.85	-3.661
3318.91	-3.369
3318.97	-2.179
3319.03	-0.764
3319.09	-2.902
3319.14	0.387
3319.20	-1.700
3319.26	-0.260
3319.32	2.018
3319.38	-0.278
3319.44	0.582
3319.50	1.317
3319.56	1.119
3319.61	-1.088
3319.67	-1.051
3319.73	-2.331
3319.79	-3.033
3319.85	-3.636
3319.91	-5.461
3319.97	-6.288
3320.02	-7.517
3320.08	-10.162
3320.14	-10.144
3320.20	-8.148
3320.26	-10.873
3320.32	-10.515
3320.38	-9.248
3320.44	-9.238
3320.49	-6.934
3320.55	-7.566
3320.61	-8.351
3320.67	-8.434
3320.73	-4.937
3320.79	-6.968
3320.85	-4.579
3320.90	-6.397
3320.96	-5.701
3321.02	-4.229
3321.08	-3.388
3321.14	-4.043
3321.20	-2.329
3321.26	-3.498
3321.31	-2.098
3321.37	-3.673
3321.43	-1.002
3321.49	-0.803
3321.55	-1.111
3321.61	-1.472
3321.67	-1.366
3321.73	-0.568
3321.78	-0.022
3321.84	-2.464
3321.90	-1.037
3321.96	-2.713
3322.02	0.244
3322.08	-0.362
3322.14	1.349
3322.19	1.042
3322.25	-1.684
3322.31	-0.145
3322.37	0.190
3322.43	-1.226
3322.49	-0.910
3322.55	0.531
3322.60	-0.479
3322.66	0.023
3322.72	1.549
3322.78	-0.338
3322.84	-0.582
3322.90	-2.034
3322.96	1.492
3323.02	1.504
3323.07	-0.080
3323.13	-0.979
3323.19	0.221
3323.25	-1.052
3323.31	-1.333
3323.37	-0.453
3323.43	0.723
3323.48	-0.652
3323.54	0.295
3323.60	0.397
3323.66	-0.451
3323.72	-0.321
3323.78	-1.288
3323.84	0.163
3323.90	-0.465
3323.95	-2.706
3324.01	-2.190
3324.07	0.545
3324.13	-0.286
3324.19	-0.668
3324.25	0.406
3324.31	-0.444
3324.36	-0.726
3324.42	-0.838
3324.48	1.024
3324.54	-0.624
3324.60	-0.339
3324.66	-1.147
3324.72	-1.109
3324.78	0.722
3324.83	-1.909
3324.89	0.426
3324.95	-0.184
3325.01	0.546
3325.07	-0.185
3325.13	-1.618
3325.19	0.240
3325.24	-1.205
3325.30	-0.163
3325.36	-0.901
3325.42	0.210
3325.48	-0.525
3325.54	-0.818
3325.60	1.752
3325.65	0.099
3325.71	0.708
3325.77	1.489
3325.83	0.383
3325.89	0.571
3325.95	-0.921
3326.01	0.640
3326.07	0.412
3326.12	-1.329
3326.18	0.248
3326.24	0.594
3326.30	-0.609
3326.36	0.676
3326.42	-1.616
3326.48	-1.416
3326.53	-1.028
3326.59	0.061
3326.65	0.517
3326.71	-0.037
3326.77	0.368
3326.83	0.829
3326.89	0.781
3326.95	-0.222
3327.00	1.673
3327.06	-0.471
3327.12	0.386
3327.18	0.113
3327.24	0.111
3327.30	-0.334
3327.36	0.658
3327.41	-1.400
3327.47	-0.624
3327.53	0.397
3327.59	0.686
3327.65	-1.253
3327.71	-0.616
3327.77	-0.273
3327.82	1.671
3327.88	-0.904
3327.94	1.281
3328.00	0.681
3328.06	-0.122
3328.12	-1.627
3328.18	1.859
3328.24	0.166
3328.29	1.867
3328.35	1.102
3328.41	1.948
3328.47	1.524
3328.53	1.704
3328.59	2.525
3328.65	1.080
3328.70	2.048
3328.76	2.017
3328.82	2.845
3328.88	3.397
3328.94	3.282
3329.00	2.056
3329.06	5.455
3329.12	4.111
3329.17	4.461
3329.23	2.571
3329.29	4.145
3329.35	6.488
3329.41	6.189
3329.47	5.216
3329.53	7.980
3329.58	7.152
3329.64	9.004
3329.70	9.209
3329.76	9.198
3329.82	9.038
3329.88	8.787
3329.94	8.960
3330.00	8.227
3330.05	8.444
3330.11	8.417
3330.17	4.704
3330.23	4.920
3330.29	5.598
3330.35	1.433
3330.41	2.830
3330.46	1.184
3330.52	-1.290
3330.58	-0.679
3330.64	-2.269
3330.70	-1.141
3330.76	-1.076
3330.82	-0.602
3330.87	0.164
3330.93	-0.296
3330.99	2.601
3331.05	2.371
3331.11	1.130
3331.17	2.900
3331.23	1.967
3331.29	2.319
3331.34	4.790
3331.40	1.636
3331.46	1.867
3331.52	2.066
3331.58	0.797
3331.64	0.425
3331.70	-0.244
3331.75	-0.459
3331.81	-0.823
3331.87	-2.130
3331.93	0.318
3331.99	2.485
3332.05	3.527
3332.11	4.167
3332.17	3.924
3332.22	5.694
3332.28	8.778
3332.34	8.325
3332.40	7.539
3332.46	7.061
3332.52	8.581
3332.58	7.138
3332.63	5.293
3332.69	4.789
3332.75	4.447
3332.81	4.232
3332.87	0.618
3332.93	1.528
3332.99	-0.358
3333.04	-2.237
3333.10	-6.846
3333.16	-6.798
3333.22	-9.884
3333.28	-8.956
3333.34	-9.022
3333.40	-10.349
3333.46	-8.655
3333.51	-9.392
3333.57	-4.417
3333.63	-3.056
3333.69	-3.348
3333.75	-2.902
3333.81	-1.332
3333.87	-1.236
3333.92	0.340
3333.98	-2.023
3334.04	-2.816
3334.10	-4.182
3334.16	-5.284
3334.22	-4.173
3334.28	-7.148
3334.34	-7.784
3334.39	-8.069
3334.45	-8.831
3334.51	-10.443
3334.57	-9.378
3334.63	-9.973
3334.69	-9.100
3334.75	-10.236
3334.80	-9.420
3334.86	-8.792
3334.92	-8.256
3334.98	-7.973
3335.04	-7.134
3335.10	-6.525
3335.16	-5.424
3335.22	-4.721
3335.27	-4.478
3335.33	-3.212
3335.39	-4.642
3335.45	-3.279
3335.51	-1.394
3335.57	0.355
3335.63	-3.817
3335.68	-2.853
3335.74	-0.983
3335.80	-1.916
3335.86	-1.602
3335.92	-1.704
3335.98	-1.064
3336.04	-1.458
3336.09	1.308
3336.15	-1.121
3336.21	-0.587
3336.27	1.347
3336.33	0.150
3336.39	-0.196
3336.45	-0.354
3336.51	0.149
3336.56	0.766
3336.62	1.421
3336.68	0.859
3336.74	1.078
3336.80	-2.872
3336.86	-1.064
3336.92	-0.008
3336.97	1.456
3337.03	1.248
3337.09	-0.895
3337.15	0.607
3337.21	-0.005
3337.27	-0.573
3337.33	-0.007
3337.39	0.379
3337.44	-0.459
3337.50	-0.458
3337.56	-1.329
3337.62	0.693
3337.68	-0.448
3337.74	0.266
3337.80	-0.988
3337.85	-0.604
3337.91	1.595
3337.97	0.921
3338.03	0.030
3338.09	0.467
3338.15	0.183
3338.21	0.694
3338.26	-0.533
3338.32	0.265
3338.38	-0.484
3338.44	2.541
3338.50	-0.869
3338.56	0.188
3338.62	-0.539
3338.68	1.798
3338.73	-0.862
3338.79	0.045
3338.85	0.144
3338.91	-0.775
3338.97	-1.403
3339.03	3.059
3339.09	-1.471
3339.14	0.816
3339.20	-2.347
3339.26	0.002
3339.32	-0.956
3339.38	0.110
3339.44	1.482
3339.50	0.263
3339.56	0.399
3339.61	-0.759
3339.67	0.937
3339.73	0.298
3339.79	-0.119
3339.85	0.346
3339.91	0.507
3339.97	0.044
3340.02	-0.338
3340.08	-0.031
3340.14	1.143
3340.20	-0.326
3340.26	-1.001
3340.32	-0.872
3340.38	1.825
3340.44	-0.083
3340.49	0.197
3340.55	-0.748
3340.61	1.805
3340.67	1.364
3340.73	-0.425
3340.79	-0.514
3340.85	-0.694
3340.90	-0.460
3340.96	-0.851
3341.02	0.516
3341.08	0.274
3341.14	1.841
3341.20	-0.368
3341.26	0.320
3341.31	1.640
3341.37	-0.084
3341.43	1.889
3341.49	0.406
3341.55	-0.496
3341.61	-0.218
3341.67	-0.422
3341.73	-0.255
3341.78	0.819
3341.84	0.059
3341.90	-0.543
3341.96	2.802
3342.02	0.317
3342.08	-0.380
3342.14	-0.319
3342.19	-0.184
3342.25	1.315
3342.31	-0.205
3342.37	2.553
3342.43	1.049
3342.49	0.632
3342.55	0.491
3342.60	0.885
3342.66	1.037
3342.72	1.948
3342.78	0.308
3342.84	2.164
3342.90	1.742
3342.96	2.682
3343.02	-1.192
3343.07	2.214
3343.13	1.342
3343.19	1.908
3343.25	3.483
3343.31	1.429
3343.37	3.387
3343.43	3.507
3343.48	5.144
3343.54	6.248
3343.60	6.085
3343.66	4.981
3343.72	7.673
3343.78	8.004
3343.84	8.086
3343.90	9.391
3343.95	8.991
3344.01	6.597
3344.07	9.111
3344.13	8.669
3344.19	9.117
3344.25	9.483
3344.31	7.475
3344.36	9.221
3344.42	7.604
3344.48	5.491
3344.54	5.042
3344.60	2.586
3344.66	3.296
3344.72	2.461
3344.78	0.617
3344.83	-1.080
3344.89	-0.461
3344.95	-2.001
3345.01	-1.337
3345.07	-0.823
3345.13	0.087
3345.19	-1.595
3345.24	-0.898
3345.30	1.703
3345.36	1.530
3345.42	0.278
3345.48	0.674
3345.54	0.845
3345.60	-0.218
3345.65	-0.110
3345.71	1.774
3345.77	-0.236
3345.83	-1.931
3345.89	-4.293
3345.95	-6.499
3346.01	-5.390
3346.07	-6.031
3346.12	-8.369
3346.18	-7.745
3346.24	-8.827
3346.30	-7.948
3346.36	-9.236
3346.42	-7.090
3346.48	-6.700
3346.53	-9.234
3346.59	-9.317
3346.65	-8.026
3346.71	-8.191
3346.77	-5.574
3346.83	-4.890
3346.89	-5.101
3346.95	-5.590
3347.00	-4.912
3347.06	-2.531
3347.12	-2.156
3347.18	0.469
3347.24	-0.832
3347.30	0.537
3347.36	1.478
3347.41	1.944
3347.47	3.416
3347.53	0.058
3347.59	1.415
3347.65	2.709
3347.71	3.012
3347.77	0.905
3347.82	0.965
3347.88	-0.260
3347.94	1.979
3348.00	-2.451
3348.06	1.491
3348.12	-0.489
3348.18	-1.560
3348.24	-0.442
3348.29	-0.524
3348.35	-3.212
3348.41	-2.058
3348.47	-1.465
3348.53	-2.069
3348.59	-1.195
3348.65	-3.937
3348.70	-4.523
3348.76	-4.079
3348.82	-2.798
3348.88	-2.060
3348.94	-3.519
3349.00	-3.235
3349.06	-1.769
3349.12	-1.506
3349.17	-0.704
3349.23	-0.181
3349.29	-0.822
3349.35	0.408
3349.41	-1.023
3349.47	0.159
3349.53	-0.337
3349.58	-2.544
3349.64	-0.532
3349.70	-0.027
3349.76	0.222
3349.82	-2.415
3349.88	0.829
3349.94	-0.929
3350.00	-0.789
3350.05	-0.841
3350.11	1.718
3350.17	0.037
3350.23	0.402
3350.29	0.090
3350.35	-0.397
3350.41	0.551
3350.46	0.334
3350.52	-1.463
3350.58	0.228
3350.64	-0.587
3350.70	-0.312
3350.76	1.203
3350.82	1.036
3350.87	-0.485
3350.93	0.686
3350.99	-0.183
3351.05	0.027
3351.11	0.142
3351.17	-0.227
3351.23	1.014
3351.29	2.166
3351.34	0.681
3351.40	-0.711
3351.46	-0.245
3351.52	-0.348
3351.58	-1.555
3351.64	0.633
3351.70	0.006
3351.75	-0.131
3351.81	-0.914
3351.87	0.007
3351.93	0.536
3351.99	-0.238
3352.05	1.119
3352.11	-0.492
3352.17	-1.003
3352.22	-1.246
3352.28	-0.429
3352.34	0.274
3352.40	-1.234
3352.46	-1.292
3352.52	1.488
3352.58	-0.413
3352.63	-0.729
3352.69	-0.728
3352.75	-0.858
3352.81	1.354
3352.87	0.130
3352.93	1.149
3352.99	-2.059
3353.04	2.237
3353.10	-1.045
3353.16	0.269
3353.22	1.774
3353.28	0.660
3353.34	-0.283
3353.40	0.568
3353.46	-0.225
3353.51	-1.114
3353.57	0.172
3353.63	2.052
3353.69	-0.814
3353.75	0.624
3353.81	0.507
3353.87	-0.212
3353.92	3.136
3353.98	0.881
3354.04	1.756
3354.10	0.674
3354.16	0.346
3354.22	-0.409
3354.28	0.534
3354.34	2.177
3354.39	-2.406
3354.45	1.237
3354.51	-0.505
3354.57	0.355
3354.63	-0.344
3354.69	2.084
3354.75	-1.030
3354.80	0.677
3354.86	-0.297
3354.92	0.483
3354.98	-1.180
3355.04	1.260
3355.10	0.041
